#
#
#
#
#
#
#
#   Quelldatei:groundel100-25.gxx  
#    Zieldatei:groundel100-25.dat  
#
#  Querschnitt:   170.410
#   Messlaenge:    15.000
#     [N/mm**2]            [N]        [%-ext]       [%-trav]            [s]           [mm]
#
         0.0            0.0            0.0            0.0            0.0          0.0
         0.0069         1.1800         0.1600         0.1600         0.1100       398.2320
         0.0067         1.1400         0.1600         0.1600         0.2300       398.2380
         0.0201         3.4200         0.4867         0.4867         0.3500       398.3550
         0.0345         5.8800         0.8067         0.8067         0.4700       398.4700
         0.0523         8.9200         1.3267         1.3267         0.5900       398.6410
         0.0757        12.9000         1.9733         1.9733         0.7100       398.8480
         0.0974        16.6000         2.5867         2.5867         0.8300       399.0590
         0.1174        20.0000         3.2067         3.2067         0.9500       399.2650
         0.1366        23.2800         3.7867         3.7867         1.0700       399.4730
         0.1549        26.4000         4.3667         4.3667         1.1900       399.6770
         0.1723        29.3600         4.9533         4.9533         1.3100       399.8810
         0.1894        32.2800         5.5667         5.5667         1.4300       400.0850
         0.2061        35.1200         6.2133         6.2133         1.5500       400.2920
         0.2223        37.8800         6.8267         6.8267         1.6700       400.5010
         0.2378        40.5200         7.3800         7.3800         1.7900       400.7040
         0.2521        42.9600         7.9600         7.9600         1.9100       400.9040
         0.2658        45.3000         8.5733         8.5733         2.0300       401.1050
         0.2798        47.6800         9.1600         9.1600         2.1500       401.3070
         0.2938        50.0600         9.8067         9.8067         2.2700       401.5120
         0.3068        52.2800        10.3867        10.3867         2.3900       401.7100
         0.3191        54.3800        11.0333        11.0333         2.5100       401.9060
         0.3314        56.4800        11.6200        11.6200         2.6300       402.1030
         0.3434        58.5200        12.2000        12.2000         2.7500       402.2990
         0.3547        60.4400        12.7800        12.7800         2.8700       402.4940
         0.3657        62.3200        13.4000        13.4000         2.9900       402.6870
         0.3766        64.1800        13.9800        13.9800         3.1100       402.8800
         0.3871        65.9600        14.5933        14.5933         3.2300       403.0720
         0.3977        67.7800        15.1800        15.1800         3.3500       403.2680
         0.4081        69.5400        15.8533        15.8533         3.4700       403.4640
         0.4178        71.2000        16.4400        16.4400         3.5900       403.6550
         0.4272        72.8000        17.0200        17.0200         3.7100       403.8430
         0.4365        74.3800        17.5733        17.5733         3.8300       404.0310
         0.4460        76.0000        18.1533        18.1533         3.9500       404.2230
         0.4549        77.5200        18.7333        18.7333         4.0700       404.4150
         0.4638        79.0400        19.3533        19.3533         4.1900       404.6090
         0.4730        80.6000        20.0000        20.0000         4.3100       404.8050
         0.4817        82.0800        20.6133        20.6133         4.4300       405.0000
         0.4893        83.3800        21.2267        21.2267         4.5500       405.1840
         0.4968        84.6600        21.8133        21.8133         4.6700       405.3690
         0.5043        85.9400        22.4267        22.4267         4.7900       405.5530
         0.5115        87.1600        23.0400        23.0400         4.9100       405.7370
         0.5185        88.3600        23.5933        23.5933         5.0300       405.9200
         0.5257        89.5800        24.2400        24.2400         5.1500       406.1040
    #	 
         0.5327        90.7800        25.0467        24.8867         5.2700       406.2880
    # 
         0.5223        89.0000        25.0467        25.4333         5.7800       406.4190
    # 
    #    0.5099        86.9000        25.4667        25.4667         6.2900       406.3830
    #    0.4954        84.4200        25.2733        25.2733         6.8000       406.2930
    #    0.4861        82.8400        25.1133        25.1133         7.3100       406.2390
    #    0.4803        81.8400        25.0800        25.0800         7.8200       406.2190
    #    0.4757        81.0600        25.0800        25.0800         8.3300       406.2100
         0.4717        80.3800        25.0467        25.0467         8.8400       406.2050
         0.4685        79.8400        25.0467        25.0467         9.3500       406.2040
         0.4655        79.3200        25.0467        25.0467         9.8600       406.2040
         0.4628        78.8600        25.0467        25.0467        10.3700       406.2040
         0.4602        78.4200        25.0467        25.0467        10.8800       406.2040
         0.4578        78.0200        25.0467        25.0467        11.3900       406.2040
         0.4556        77.6400        25.0467        25.0467        11.9000       406.2040
         0.4535        77.2800        25.0467        25.0467        12.4100       406.2040
         0.4517        76.9800        25.0467        25.0467        12.9200       406.2040
         0.4497        76.6400        25.0467        25.0467        13.4300       406.2040
         0.4481        76.3600        25.0467        25.0467        13.9400       406.2040
         0.4465        76.0800        25.0467        25.0467        14.4500       406.2040
         0.4449        75.8200        25.0467        25.0467        14.9600       406.2040
         0.4435        75.5800        25.0467        25.0467        15.4700       406.2040
         0.4421        75.3400        25.0467        25.0467        15.9800       406.2030
         0.4407        75.1000        25.0467        25.0467        16.4900       406.2030
         0.4394        74.8800        25.0467        25.0467        17.0000       406.2030
         0.4382        74.6800        25.0467        25.0467        17.5100       406.2030
         0.4371        74.4800        25.0467        25.0467        18.0200       406.2030
         0.4359        74.2800        25.0467        25.0467        18.5300       406.2030
         0.4347        74.0800        25.0467        25.0467        19.0400       406.2030
         0.4338        73.9200        25.0467        25.0467        19.5500       406.2030
         0.4327        73.7400        25.0467        25.0467        20.0600       406.2030
         0.4318        73.5800        25.0467        25.0467        20.5700       406.2030
         0.4308        73.4200        25.0467        25.0467        21.0800       406.2030
         0.4298        73.2400        25.0467        25.0467        21.5900       406.2030
         0.4290        73.1000        25.0467        25.0467        22.1000       406.2030
         0.4283        72.9800        25.0467        25.0467        22.6100       406.2030
         0.4272        72.8000        25.0467        25.0467        23.1200       406.2030
         0.4265        72.6800        25.0467        25.0467        23.6300       406.2030
         0.4257        72.5400        25.0467        25.0467        24.1400       406.2030
         0.4249        72.4000        25.0467        25.0467        24.6500       406.2030
         0.4242        72.2800        25.0467        25.0467        25.1600       406.2030
         0.4234        72.1600        25.0467        25.0467        25.6700       406.2030
         0.4226        72.0200        25.0467        25.0467        26.1800       406.2030
         0.4220        71.9200        25.0467        25.0467        26.6900       406.2030
         0.4213        71.8000        25.0467        25.0467        27.2000       406.2030
         0.4206        71.6800        25.0467        25.0467        27.7100       406.2030
         0.4200        71.5800        25.0467        25.0467        28.2200       406.2030
         0.4195        71.4800        25.0467        25.0467        28.7300       406.2030
         0.4188        71.3600        25.0467        25.0467        29.2400       406.2030
         0.4181        71.2400        25.0467        25.0467        29.7500       406.2030
         0.4175        71.1400        25.0467        25.0467        30.2600       406.2030
         0.4170        71.0600        25.0467        25.0467        30.7700       406.2030
         0.4164        70.9600        25.0467        25.0467        31.2800       406.2030
         0.4158        70.8600        25.0467        25.0467        31.7900       406.2030
         0.4154        70.7800        25.0467        25.0467        32.3000       406.2030
         0.4146        70.6600        25.0467        25.0467        32.8100       406.2030
         0.4142        70.5800        25.0467        25.0467        33.3200       406.2030
         0.4137        70.5000        25.0467        25.0467        33.8300       406.2030
         0.4132        70.4200        25.0467        25.0467        34.3400       406.2030
         0.4128        70.3400        25.0467        25.0467        34.8500       406.2030
         0.3823        65.1400        25.0467        25.0467        94.8500       406.2030
         0.3692        62.9200        25.0467        25.0467       154.8800       406.2030
         0.3610        61.5200        25.0467        25.0467       214.9100       406.2030
         0.3551        60.5200        25.0467        25.0467       274.9400       406.2030
         0.3506        59.7400        25.0467        25.0467       334.9700       406.2030
         0.3469        59.1200        25.0467        25.0467       395.0000       406.2030
         0.3439        58.6000        25.0467        25.0467       455.0300       406.2030
         0.3413        58.1600        25.0467        25.0467       515.0600       406.2030
         0.3391        57.7800        25.0467        25.0467       575.0900       406.2030
         0.3371        57.4400        25.0467        25.0467       635.0900       406.2030
         0.3353        57.1400        25.0467        25.0467       695.1200       406.2030
         0.3337        56.8600        25.0467        25.0467       755.1500       406.2030
         0.3323        56.6200        25.0467        25.0467       815.1800       406.2030
         0.3310        56.4000        25.0467        25.0467       875.2100       406.2030
         0.3298        56.2000        25.0467        25.0467       935.2400       406.2030
         0.3287        56.0200        25.0467        25.0467       995.2700       406.2030
         0.3276        55.8200        25.0467        25.0467      1055.2700       406.2030
         0.3266        55.6600        25.0467        25.0467      1115.3000       406.2030
         0.3257        55.5000        25.0467        25.0467      1175.3300       406.2030
         0.3264        55.6200        25.0467        25.0467      1235.3600       406.2590
         0.3255        55.4600        25.0467        25.0467      1295.3900       406.2590
         0.3246        55.3200        25.0467        25.0467      1355.4200       406.2590
         0.3239        55.2000        25.0467        25.0467      1415.4500       406.2590
         0.3232        55.0800        25.0467        25.0467      1475.4800       406.2590
         0.3225        54.9600        25.0467        25.0467      1535.5100       406.2590
         0.3219        54.8600        25.0467        25.0467      1595.5400       406.2590
         0.3212        54.7400        25.0467        25.0467      1655.5699       406.2590
         0.3206        54.6400        25.0467        25.0467      1715.6000       406.2590
         0.3201        54.5400        25.0467        25.0467      1775.6300       406.2590
         0.3196        54.4600        25.0467        25.0467      1835.6600       406.2590
         0.3190        54.3600        25.0467        25.0467      1895.6899       406.2590
         0.3186        54.3000        25.0467        25.0467      1955.7200       406.2590
         0.3181        54.2000        25.0467        25.0467      2015.7500       406.2590
         0.3176        54.1200        25.0467        25.0467      2075.7800       406.2590
         0.3171        54.0400        25.0467        25.0467      2135.8101       406.2590
         0.3168        53.9800        25.0467        25.0467      2195.8401       406.2590
         0.3164        53.9200        25.0467        25.0467      2255.8701       406.2590
         0.3159        53.8400        25.0467        25.0467      2315.8999       406.2590
         0.3156        53.7800        25.0467        25.0467      2375.9299       406.2590
         0.3150        53.6800        25.0467        25.0467      2435.9600       406.2590
         0.3148        53.6400        25.0467        25.0467      2495.9900       406.2590
         0.3144        53.5800        25.0467        25.0467      2556.0200       406.2590
         0.3141        53.5200        25.0467        25.0467      2616.0500       406.2590
         0.3136        53.4400        25.0467        25.0467      2676.0801       406.2590
         0.3132        53.3800        25.0467        25.0467      2736.1101       406.2590
         0.3131        53.3600        25.0467        25.0467      2796.1399       406.2590
         0.3128        53.3000        25.0467        25.0467      2856.1699       406.2590
         0.3123        53.2200        25.0467        25.0467      2916.2000       406.2590
         0.3122        53.2000        25.0467        25.0467      2976.2300       406.2590
         0.3118        53.1400        25.0467        25.0467      3036.2600       406.2590
         0.3125        53.2600        25.0467        25.0467      3096.2900       406.2770
         0.3122        53.2000        25.0467        25.0467      3156.3201       406.2770
         0.3118        53.1400        25.0467        25.0467      3216.3501       406.2770
         0.3116        53.1000        25.0467        25.0467      3276.3799       406.2770
         0.3114        53.0600        25.0467        25.0467      3336.4099       406.2770
         0.3110        53.0000        25.0467        25.0467      3396.4399       406.2770
         0.3108        52.9600        25.0467        25.0467      3456.4700       406.2770
         0.3105        52.9200        25.0467        25.0467      3516.5000       406.2770
         0.3103        52.8800        25.0467        25.0467      3576.5300       406.2770
         0.3102        52.8600        25.0467        25.0467      3605.3301       406.2770
         0.3102        52.8600        25.0467        25.0467      3605.4500       406.2770
         0.3102        52.8600        25.0467        25.0467      3605.5701       406.2770
         0.3157        53.8000        25.3733        25.3733      3605.6899       406.3750
         0.3299        56.2200        25.9200        25.9200      3605.8101       406.5450
         0.3431        58.4600        26.4067        26.4067      3605.9299       406.7240
         0.3575        60.9200        27.1200        27.1200      3606.0500       406.9320
         0.3709        63.2000        27.8000        27.8000      3606.1699       407.1400
         0.3833        65.3200        28.4133        28.4133      3606.2900       407.3410
         0.3947        67.2600        29.0267        29.0267      3606.4099       407.5380
         0.4057        69.1400        29.6067        29.6067      3606.5300       407.7320
         0.4158        70.8600        30.1933        30.1933      3606.6499       407.9210
         0.4257        72.5400        30.8067        30.8067      3606.7700       408.1090
         0.4354        74.2000        31.4200        31.4200      3606.8899       408.2990
         0.4447        75.7800        32.0333        32.0333      3607.0100       408.4900
         0.4541        77.3800        32.6867        32.6867      3607.1299       408.6810
         0.4625        78.8200        33.2667        33.2667      3607.2500       408.8630
         0.4707        80.2200        33.8467        33.8467      3607.3701       409.0420
         0.4786        81.5600        34.4667        34.4667      3607.4900       409.2230
         0.4864        82.8800        35.0800        35.0800      3607.6101       409.4020
         0.4941        84.2000        35.6933        35.6933      3607.7300       409.5830
         0.5009        85.3600        36.2733        36.2733      3607.8501       409.7540
         0.5077        86.5200        36.8600        36.8600      3607.9700       409.9270
         0.5148        87.7200        37.4400        37.4400      3608.0901       410.1020
         0.5218        88.9200        38.0533        38.0533      3608.2100       410.2830
         0.5286        90.0800        38.7000        38.7000      3608.3301       410.4610
         0.5349        91.1600        39.2867        39.2867      3608.4500       410.6340
         0.5412        92.2200        39.8333        39.8333      3608.5701       410.8060
         0.5476        93.3200        40.3867        40.3867      3608.6899       410.9840
         0.5541        94.4200        40.9667        40.9667      3608.8101       411.1620
         0.5604        95.5000        41.6133        41.6133      3608.9299       411.3420
         0.5665        96.5400        42.2600        42.2600      3609.0500       411.5250
         0.5729        97.6200        42.8800        42.8800      3609.1699       411.7090
         0.5786        98.6000        43.4600        43.4600      3609.2900       411.8840
         0.5840        99.5200        44.0733        44.0733      3609.4099       412.0520
         0.5893       100.4200        44.6600        44.6600      3609.5300       412.2210
         0.5943       101.2800        45.2733        45.2733      3609.6499       412.3920
         0.5994       102.1400        45.8867        45.8867      3609.7700       412.5650
         0.6043       102.9800        46.5000        46.5000      3609.8899       412.7320
         0.6091       103.8000        47.0200        47.0200      3610.0100       412.8970
         0.6137       104.5800        47.6000        47.6000      3610.1299       413.0600
         0.6187       105.4400        48.1867        48.1867      3610.2500       413.2370
         0.6238       106.3000        48.8000        48.8000      3610.3701       413.4120
         0.6286       107.1200        49.4133        49.4133      3610.4900       413.5890
         0.6332       107.9000        50.0267        50.0267      3610.6101       413.7630
   #     0.6225       106.0800        50.3200        50.3200      3611.1201       413.8270
   #     0.6133       104.5200        50.3533        50.3533      3611.6299       413.7940
   #     0.6033       102.8000        50.2200        50.2200      3612.1399       413.7220
   #     0.5967       101.6800        50.0933        50.0933      3612.6499       413.6760
   #     0.5925       100.9600        50.0600        50.0600      3613.1599       413.6590
         0.5890       100.3800        50.0267        50.0267      3613.6699       413.6530
         0.5864        99.9200        50.0267        50.0267      3614.1799       413.6530
         0.5840        99.5200        50.0267        50.0267      3614.6899       413.6530
         0.5815        99.1000        50.0267        50.0267      3615.2000       413.6530
         0.5795        98.7600        50.0267        50.0267      3615.7100       413.6530
